Ritz wavelength (nm),Si I (1.1e-01),Si II (8.9e-01),Si III (7.3e-04)
180.3018,,,7.735e-7
180.4349,,,5.059e-9
180.8013,,1.605e+3,
180.9105,1.994e+3,,
181.4079,3.421e+3,,
181.6928,,2.507e+3,
181.7451,,2.041e+2,
183.651,6.545e+2,,
183.8466,,,2.138e-8
183.9585,,,6.414e-8
184.1152,4.618e+2,,
184.1449,1.834e+3,,
184.2064,,,1.060e-7
184.2548,,,2.036e-4
184.377,1.031e+3,,
184.552,5.255e+3,,
184.6112,5.878e+2,,
184.7474,1.212e+4,,
184.815,3.847e+3,,
184.8748,1.207e+3,,
185.0672,2.206e+4,,
185.2472,3.848e+3,,
185.3152,2.477e+2,,
185.607,,,5.873e-8
187.4842,1.703e+3,,
188.1854,4.041e+2,,
188.8242,,,2.677e-9
188.8254,,,3.976e-9
188.8283,,,5.751e-9
190.1338,4.071e+3,,
193.2275,,,1.657e-8
195.3968,,,1.554e-8
196.4862,,,7.747e-9
196.8839,,,1.010e-8
197.4145,,,1.307e-8
197.7598,1.367e+3,,
197.9205,1.413e+3,,
197.9233,,,4.292e-9
198.0618,1.014e+3,,
198.3233,1.795e+3,,
198.6364,1.788e+3,,
198.8994,5.417e+3,,
199.321,,,1.761e-9
199.6908,,,2.597e-9
200.1072,,,3.725e-9
200.495,,4.392e-1,
200.914,,,4.586e-9
200.9899,,,1.806e-9
201.492,,1.578e+0,
201.666,,3.249e+0,
204.9903,,,1.516e-7
205.8133,2.034e+3,,
206.2207,,2.016e+0,
207.2015,,2.297e+2,
207.2695,,1.627e+1,
207.27,,3.190e+2,
207.5028,,,7.645e-9
207.5042,,,1.133e-8
207.5052,,,1.426e-9
207.5082,,,1.640e-8
207.5094,,,1.421e-9
212.299,1.233e+3,,
212.4122,2.401e+4,,
217.0396,,,5.050e-9
217.1559,,,1.172e-8
217.5933,,,5.147e-9
217.6901,,,5.790e-8
218.0839,,,4.085e-8
218.2066,,,2.807e-8
219.1939,,,1.501e-9
220.7978,2.473e+3,,
221.0892,5.432e+3,,
221.1745,1.709e+3,,
221.6669,9.944e+3,,
221.8057,1.711e+3,,
222.2031,,,1.495e-8
222.222,,,7.114e-10
222.5248,,4.160e+0,
223.2507,,2.092e+0,
224.9199,,,7.141e-10
229.5477,,,2.975e-8
230.3058,6.141e+3,,
230.6424,,,3.157e-9
230.8188,,,5.003e-8
230.853,,4.781e-1,
231.173,,9.848e+0,
232.9945,,,5.100e-9
241.8281,,,5.140e-9
242.3049,,,7.543e-9
242.9365,,,1.081e-8
243.5154,5.389e+3,,
243.9943,,5.511e+0,
244.3517,,2.549e+0,
244.9449,,,3.115e-8
244.9458,,,4.616e-8
244.9482,,,5.794e-9
244.9505,,,6.684e-8
244.953,,,5.781e-9
246.5912,,,2.817e-9
248.1508,,,2.344e-9
248.3197,,,3.059e-9
248.5623,,,3.964e-9
250.0945,,3.834e+0,
250.1988,,5.474e+0,
250.3295,,1.245e+0,
250.4331,,1.118e+1,
250.5089,,6.112e+0,
250.6897,1.665e+4,,
251.4316,1.382e+4,,
251.6112,5.113e+4,,
251.9202,1.027e+4,,
252.4108,1.398e+4,,
252.8471,,,3.427e-8
252.8508,1.691e+4,,
253.2381,7.039e+2,,
254.1818,,,3.057e-2
254.6092,,,2.011e-6
255.9196,,,7.715e-6
263.1282,3.660e+3,,
264.0788,,,3.314e-8
264.5538,,1.446e+0,
265.552,,,7.718e-8
265.5805,,2.917e+0,
265.9779,,7.110e+0,
267.0156,,1.432e+0,
267.7906,,4.415e+0,
272.2249,,2.098e+0,
272.6702,,4.263e+0,
281.7113,,,7.141e-9
283.1489,,,5.006e-9
283.9628,,,3.412e-9
287.4627,,,3.102e-9
287.5072,,,1.860e-9
288.1578,3.484e+4,,
288.7358,,1.840e+0,
288.7515,,2.800e+0,
290.4283,,2.417e+1,
290.5678,,1.722e+0,
290.5692,,3.448e+1,
295.9153,,,1.292e-9
298.7643,4.976e+2,,
303.4731,,,2.001e-8
304.093,,,3.403e-8
304.3931,,,2.158e-8
304.5097,,,1.158e-8
306.8229,,,4.495e-9
307.7528,,,2.671e-9
308.6236,,,1.911e-4
308.6436,,,3.417e-5
309.3424,,,1.030e-4
309.3654,,,3.432e-5
309.6826,,,4.590e-5
312.6263,,,7.322e-9
313.5918,,,2.415e-9
314.7361,,,2.444e-9
315.7147,,,1.459e-9
316.161,,,2.101e-8
316.3298,,,1.932e-9
316.5347,,,1.949e-9
318.5121,,,1.872e-6
318.6018,,,2.273e-7
319.6501,,,2.948e-7
319.6546,,,1.969e-8
320.3872,,2.373e+1,
321.0026,,4.231e+1,
321.0042,,4.703e+0,
321.0557,,,3.793e-7
321.0628,,,1.940e-8
321.6249,,,2.028e-8
323.0496,,,8.152e-7
323.3954,,,2.437e-6
324.1626,,,4.033e-6
325.107,,,6.482e-10
325.139,,,9.605e-10
325.187,,,1.388e-9
325.3118,,,4.939e-9
325.341,,,2.854e-9
325.3745,,,7.293e-9
325.4807,,,1.052e-8
325.8667,,,1.584e-8
327.0461,,,2.889e-9
327.6265,,,8.608e-9
327.9261,,,3.839e-9
329.4131,,,1.056e-9
330.1678,,,6.476e-10
333.3139,,3.098e+0,
333.9818,,6.195e+0,
344.038,,,3.834e-9
348.6825,,,4.491e-7
348.6927,,,3.110e-7
348.697,,,2.092e-7
348.704,,,3.895e-8
348.7073,,,3.878e-8
352.5939,,,4.492e-9
356.9672,,,3.643e-9
359.0465,,,9.097e-6
362.2538,,,4.021e-9
362.401,,,8.125e-10
362.413,,,1.070e-9
362.44,,,1.391e-9
363.8524,,,1.342e-9
363.8894,,,1.988e-9
363.9441,,,2.863e-9
364.5119,,,2.262e-9
367.6731,,,1.945e-9
368.1402,,,4.983e-9
368.2132,,,2.978e-9
379.1439,,,5.329e-6
379.6124,,,1.191e-5
379.6203,,,3.966e-6
380.6526,,,2.218e-5
380.67,,,3.956e-6
380.6779,,,2.634e-7
383.518,,,6.773e-10
384.2462,,,6.976e-9
385.3665,,1.295e+2,
385.6018,,1.115e+3,
386.2595,,4.991e+2,
390.5523,2.136e+3,,
392.4468,,,8.973e-7
406.5377,,,8.455e-10
407.5452,,6.126e+0,
410.2423,,,2.586e-8
411.117,,,2.051e-9
411.133,,,2.688e-9
411.1512,,,3.502e-9
411.5487,,,9.362e-9
412.8054,,3.565e+2,
413.0872,,2.560e+1,
413.0894,,5.551e+2,
420.0658,,1.395e+0,
420.0898,,1.994e+0,
433.85,,,1.001e-5
435.6851,,,1.366e-9
440.383,,,3.711e-9
440.5352,,,3.366e-9
440.6717,,,7.169e-9
446.8447,,,1.239e-9
448.2874,,,1.184e-9
449.4043,,,3.657e-9
455.2622,,,1.650e-4
455.3997,,,5.891e-9
455.7273,,,6.315e-9
456.784,,,9.909e-5
457.4757,,,3.290e-5
461.9646,,,4.531e-9
462.1418,,2.869e+0,
462.1722,,4.094e+0,
463.8278,,,3.662e-9
466.5862,,,2.695e-9
467.3256,,1.985e+0,
467.3284,,1.385e+0,
468.3022,,,1.301e-8
468.3794,,,3.579e-9
471.6654,,,4.799e-7
473.0521,,,4.319e-9
480.0427,,,2.902e-8
481.3333,,,4.224e-7
481.9712,,,5.482e-7
481.9814,,,3.661e-8
482.895,,,7.111e-7
482.9111,,,3.646e-8
504.1024,,1.529e+2,
505.5984,,4.749e+2,
505.6317,,4.586e+1,
511.376,,,6.835e-9
511.3866,,,8.994e-9
511.4117,,,1.172e-8
518.552,,4.530e+0,
518.5555,,3.156e+0,
519.7236,,,3.986e-9
531.3244,,,8.994e-10
545.1455,,,1.086e-8
545.196,,,4.909e-9
546.2145,,8.512e-1,
546.6461,,7.328e+0,
546.6894,,1.045e+1,
546.9451,,1.529e+0,
547.3042,,,1.952e-8
547.8092,,8.794e-1,
549.0111,,,3.599e-9
553.9926,,,3.447e-9
559.9246,,,2.290e-9
563.297,,3.678e-1,
566.065,,4.932e-1,
566.956,,4.597e+0,
568.144,,4.772e-1,
568.882,,3.241e+0,
569.649,,,2.699e-8
569.74,,,4.147e-10
570.137,,2.147e+0,
570.459,,,3.982e-8
570.64,,1.469e+0,
570.72,,,5.979e-10
571.629,,,5.722e-8
572.461,,,4.119e-10
573.973,,,3.685e-5
589.879,,,2.779e-8
595.756,,8.926e+1,
597.893,,1.801e+2,
616.983,,,3.965e-9
623.961,,1.411e+1,
623.966,,9.847e+0,
631.446,,,3.364e-8
634.711,,1.480e+3,
637.137,,8.680e+2,
647.38,,,7.002e-10
647.39,,,9.173e-10
647.41,,,1.194e-9
652.149,,,1.031e-8
652.261,,,1.524e-8
652.434,,,2.201e-8
666.053,,2.565e+0,
666.503,,1.031e+0,
667.184,,4.413e+0,
669.94,,1.012e+0,
671.697,,1.288e+0,
675.034,,1.050e+0,
675.19,,2.002e-1,
680.528,,,6.417e-8
681.059,,,1.732e-9
681.841,,2.694e+0,
682.98,,4.863e+0,
683.155,,,5.467e-8
683.407,,,3.282e-8
685.176,,,1.190e-7
698.832,,,5.978e-10
700.3569,9.040e+1,,
700.431,,,7.565e-10
700.588,1.277e+2,,
701.905,,,1.088e-9
704.748,,,4.763e-9
712.585,,1.439e+0,
740.847,,,4.510e-9
744.233,,,1.500e-8
746.19,,,9.565e-8
746.235,,,7.189e-8
746.265,,,2.157e-7
746.565,,,7.184e-8
746.632,,,4.019e-7
761.236,,,1.980e-7
768.0266,1.128e+2,,
774.272,2.062e+2,,
784.882,,2.519e+1,
784.962,,1.796e+0,
784.972,,3.592e+1,
791.152,,9.044e-1,
791.163,,6.333e-1,
791.8384,1.222e+2,,
793.2348,1.668e+2,,
794.4001,2.362e+2,,
804.441,,7.555e-1,
804.455,,1.080e+0,
819.05,,,3.598e-8
819.095,,,4.683e-8
819.108,,,3.135e-9
819.168,,,6.135e-8
819.232,,,3.133e-9
821.194,,,2.849e-9
821.2,,,1.664e-9
821.23,,,2.178e-9
826.257,,,2.151e-7
826.565,,,3.854e-8
826.933,,,1.148e-7
827.139,,,3.829e-8
827.195,,,5.089e-8
834.196,,,1.646e-9
843.649,,,1.181e-8
864.847,4.164e+2,,
889.923,1.017e+2,,
893.55,,1.678e+0,
893.563,,1.174e+0,
917.307,,,4.583e-8
926.056,,,2.376e-8
932.389,,,5.680e-6
932.92,,,1.287e-9
939.203,,,2.901e-9
941.27,,3.976e+0,
941.35,3.242e+2,,
950.4,,5.031e-1,