Ritz wavelength (nm),V I (2.1e-02),V II (9.7e-01),V III (1.1e-02)
180.56065,,9.213e+1,
180.59217,,2.669e+2,
180.649034,,3.619e+2,
181.21705,,2.910e+2,
181.59318,,1.979e+2,
182.28112,,1.590e+2,
183.03783,,1.329e+2,
183.357586,,2.154e+2,
183.88287,,3.556e+2,
183.89075,,2.311e+2,
185.09499,,3.030e+2,
186.14063,,2.438e+2,
186.237722,,1.479e+3,
186.7498,,1.513e+2,
186.945342,,4.308e+2,
186.949099,,1.054e+3,
187.109296,,3.230e+2,
187.339447,,1.731e+2,
187.445198,,3.139e+2,
187.605958,,8.729e+2,
187.647878,,4.816e+2,
187.701746,,2.518e+2,
187.889875,,1.392e+2,
188.400757,,6.980e+2,
188.589522,,2.479e+2,
190.52018,,7.997e+1,
190.78094,,3.684e+3,
190.80792,,4.254e+1,
190.835466,,1.989e+3,
190.85214,,5.705e+2,
190.937686,,7.345e+2,
191.11056,,4.355e+1,
191.19033,,9.587e+2,
191.240493,,1.152e+3,
191.25267,,3.992e+2,
191.31191,,4.376e+2,
191.372002,,9.546e+2,
191.45981,,1.652e+2,
191.49394,,3.138e+2,
191.93414,,8.758e+1,
191.9421,,8.958e+1,
192.48732,,7.258e+1,
192.963768,,1.186e+3,
193.745151,,1.057e+3,
193.872395,,4.249e+2,
194.087707,,1.128e+3,
194.128164,,9.863e+2,
194.139555,,1.192e+3,
194.237118,,8.319e+2,
194.53685,,2.962e+2,
194.564736,,6.753e+2,
197.262996,,1.293e+2,
197.662768,,4.277e+2,
197.897281,,1.518e+2,
198.005198,,5.119e+2,
198.059371,,3.449e+2,
200.114522,,1.940e+2,
200.145193,,1.239e+2,
200.165361,,2.468e+2,
200.478739,,2.811e+3,
200.688887,,1.380e+3,
200.765098,,2.154e+2,
201.11496,,2.294e+2,
201.418773,,2.266e+3,
201.420776,,7.126e+2,
201.49202,,1.458e+2,
201.502635,,1.727e+2,
201.55594,,2.904e+2,
201.56525,,2.782e+2,
201.57583,,1.331e+2,
201.650477,,3.222e+2,
201.655299,,3.112e+2,
202.356513,,1.771e+3,
205.484865,,7.711e+2,
205.734824,,3.531e+2,
205.834026,,4.927e+2,
206.2957,,5.068e+1,
206.57537,,6.317e+2,
206.67943,,5.496e+1,
206.878755,,6.760e+2,
207.24242,,2.360e+2,
207.486574,,2.810e+2,
207.6847,,8.601e+2,
207.75431,,4.110e+2,
207.77635,,6.183e+2,
209.03266,,2.925e+2,
209.536195,,2.417e+2,
209.593756,,2.256e+2,
209.914548,,1.269e+3,
210.117653,,1.894e+3,
210.352413,,9.008e+2,
210.368218,,2.422e+3,
210.46446,,2.447e+1,
210.73985,,3.059e+1,
211.10402,,1.159e+2,
211.403558,,4.552e+2,
211.72736,,3.892e+2,
211.84173,,6.096e+2,
211.8804,,9.177e+2,
211.910399,,1.246e+3,
212.332309,,1.484e+3,
212.946872,,1.229e+3,
213.183511,,1.345e+3,
213.408045,,2.006e+3,
213.411286,,6.248e+3,
213.415787,,1.660e+3,
213.72993,,6.687e+3,
213.815591,,2.315e+3,
213.980836,,4.260e+3,
214.006803,,1.791e+4,
214.197769,,6.991e+3,
214.304452,,3.149e+3,
215.082012,,2.015e+3,
215.10151,,1.641e+3,
215.17953,,1.260e+3,
215.56015,,9.441e+1,
216.149889,,2.363e+2,
216.36875,,5.485e+1,
216.61207,,4.545e+1,
217.1833,,1.024e+2,
218.534295,,3.557e+2,
218.594922,,6.940e+2,
218.693363,,4.173e+2,
219.021974,,5.337e+2,
219.33337,,6.398e+1,
219.56953,,6.449e+1,
219.853165,,2.363e+2,
221.00347,,3.693e+2,
221.13967,,6.449e+1,
221.57986,,2.202e+2,
221.73381,,7.198e+1,
221.94125,,1.813e+2,
222.99902,,6.749e+2,
226.18443,,3.503e+1,
227.80919,,1.847e+1,
228.02858,,9.233e+1,
228.05777,,1.965e+1,
228.123368,,4.024e+2,
228.37557,,1.402e+2,
228.80828,,2.092e+2,
229.25931,,3.891e+2,
229.499797,,9.488e+2,
231.4176,,,1.990e+0
231.8061,,,2.314e+0
231.8995,,,2.443e+0
232.3857,,,3.423e+0
232.511,,,1.694e+0
233.01378,,3.008e+2,
233.0423,,,1.676e+1
233.175,,,1.090e+1
233.4207,,,7.452e+0
233.548111,,2.159e+3,
233.609871,,9.416e+2,
233.7133,,,6.266e+0
234.214092,,3.176e+3,
234.3136,,,3.724e+0
234.6325,,,1.903e+0
234.713,,,2.473e+0
234.8245,,,1.963e+0
234.9282,,2.765e+1,
235.217803,,3.096e+3,
235.781663,,7.869e+2,
235.8732,,,1.050e+1
236.033672,,5.750e+2,
236.6294,,,1.258e+1
237.1056,,,3.579e+1
237.3062,,,2.377e+0
237.915318,,1.421e+3,
238.091307,,2.652e+3,
238.2463,,,3.053e+1
238.34303,,1.564e+2,
238.40013,,1.781e+3,
238.79235,,1.600e+2,
239.04659,,2.024e+2,
239.358,,,2.215e+1
239.9686,,,2.259e+0
240.190373,5.556e+1,,
240.4183,,,1.009e+1
240.674749,7.495e+1,,
240.717,,,3.297e+0
241.268946,6.977e+1,,
241.3911,,,2.502e+0
242.012142,7.973e+1,,
243.8034,,1.715e+2,
243.97731,,5.103e+1,
244.4967,,1.117e+3,
244.761287,,5.512e+2,
245.0231,,1.055e+2,
245.2769,,3.653e+1,
245.334621,,1.636e+3,
245.828739,,8.506e+2,
246.149325,,5.950e+2,
246.526947,,1.786e+3,
246.98624,,8.183e+1,
247.903944,,2.939e+3,
247.951684,,3.552e+3,
248.230708,,2.694e+3,
248.30618,,2.139e+3,
249.2148,,5.422e+1,
250.16139,7.385e+1,,
250.30245,,1.758e+3,
250.42958,,8.487e+1,
250.622078,,2.349e+3,
250.69066,1.040e+2,,
250.786274,7.833e+1,,
251.19458,1.255e+2,,
251.463668,,2.958e+3,
251.6135,,,2.839e+0
251.71486,1.419e+2,,
251.962327,2.591e+2,,
252.1158,,,2.726e+0
252.1549,,,2.168e+0
252.250805,,8.322e+2,
252.395049,,3.502e+3,
252.790431,,2.497e+4,
252.846604,,1.736e+4,
252.883451,,2.086e+4,
253.01853,1.841e+2,,
253.188426,,4.690e+2,
253.34546,,9.497e+1,
253.39747,,1.622e+2,
253.451995,,1.978e+3,
253.76193,,2.876e+2,
254.22094,,2.145e+2,
254.270845,,3.721e+2,
254.424867,,2.253e+2,
254.592411,7.918e+1,,
254.8218,,,3.694e+0
254.868956,,9.042e+2,
254.927692,,9.070e+3,
255.302834,,2.585e+3,
255.336862,,2.696e+2,
255.367026,,2.662e+3,
255.389435,,2.736e+2,
255.403627,,1.429e+3,
255.4224,,,3.169e+0
255.5906,,1.749e+3,
256.212841,1.456e+2,,
256.276088,,1.191e+3,
256.328858,,3.829e+2,
256.397684,,2.481e+2,
256.554559,,6.316e+2,
256.6026,,1.460e+3,
256.639164,,3.553e+2,
256.65884,,4.721e+2,
256.741387,,5.087e+2,
256.827739,,3.120e+2,
257.10472,,3.518e+2,
257.105718,,1.733e+3,
257.26487,,2.019e+2,
257.40187,1.949e+2,,
257.451738,,1.243e+3,
258.300016,,7.032e+2,
258.495117,,1.786e+3,
258.73199,,1.711e+2,
258.81209,,1.518e+2,
258.839746,,3.415e+2,
258.87824,,9.508e+1,
259.22082,,1.402e+3,
259.3049,,,8.438e+0
259.37613,,2.054e+2,
259.5098,,,1.064e+1
260.105389,,4.158e+2,
260.29037,,3.316e+2,
260.95935,,6.473e+1,
261.439731,,1.034e+3,
261.624556,,4.922e+3,
262.176575,,7.585e+2,
262.2551,,2.262e+2,
262.36603,,4.752e+2,
262.379133,,7.350e+2,
262.80585,,3.869e+2,
262.967571,,2.622e+3,
263.04623,,5.136e+2,
263.06643,,1.163e+4,
263.8462,,1.965e+2,
264.081938,,3.842e+3,
264.220579,,4.619e+3,
264.2712,,6.462e+2,
264.365087,,5.801e+2,
264.41494,,6.649e+2,
264.433234,,4.878e+3,
264.525714,1.147e+2,,
264.583606,,6.876e+3,
264.77054,1.300e+2,,
264.8466,,1.759e+3,
264.932567,,5.867e+3,
265.15355,,4.021e+2,
265.189354,1.744e+2,,
265.2717,,1.315e+3,
265.564743,,7.116e+3,
265.622144,2.638e+2,,
265.845388,,5.331e+2,
265.88819,,4.552e+2,
265.899271,,8.322e+2,
265.960008,,1.722e+3,
266.12503,,8.045e+1,
266.142165,3.247e+2,,
266.1426,,1.496e+3,
266.320787,,8.383e+3,
266.35107,,1.567e+2,
266.35626,,7.859e+1,
266.675053,,4.775e+2,
266.79907,,3.434e+2,
267.200045,,1.480e+4,
267.3203,,1.736e+3,
267.6009,,4.837e+2,
267.60109,,1.460e+2,
267.779591,,1.586e+4,
267.79516,,1.055e+2,
267.856439,,1.064e+4,
267.931595,,2.139e+4,
267.98493,,1.304e+2,
268.0291,,2.464e+2,
268.04602,,5.835e+2,
268.286544,,8.796e+3,
268.30803,,9.768e+3,
268.3657,,1.137e+2,
268.512479,,2.597e+3,
268.795167,,7.410e+4,
268.870851,,9.438e+3,
268.987348,,9.788e+3,
269.024064,,1.586e+4,
269.07821,,1.533e+4,
270.092751,,3.857e+4,
270.217649,,1.906e+4,
270.61118,,1.668e+2,
270.615641,,3.071e+4,
270.669032,,8.595e+3,
270.785992,,3.808e+3,
271.173028,,6.072e+3,
271.213782,,1.169e+3,
271.23762,,4.543e+2,
271.27476,,5.113e+2,
271.419725,,3.912e+3,
271.43644,,6.087e+2,
271.565476,,2.224e+4,
272.25542,5.510e+2,,
272.344883,,9.916e+2,
272.653408,,9.083e+2,
272.863728,,1.067e+4,
272.87115,,2.294e+2,
273.13415,6.678e+2,,
273.29515,,4.752e+2,
273.35855,,5.706e+2,
273.42104,,7.647e+2,
273.665956,,2.035e+2,
273.97084,,8.928e+3,
274.64574,,1.584e+2,
274.74624,,9.408e+2,
274.746413,,3.330e+3,
275.022541,,6.202e+2,
275.17349,,5.532e+2,
275.205908,,9.376e+2,
275.339688,,1.642e+4,
275.49736,,6.404e+2,
275.636929,,6.310e+2,
275.847104,,1.381e+3,
275.8772,,2.031e+2,
275.881207,,3.127e+3,
275.95603,,4.896e+2,
276.01214,,3.842e+3,
276.06929,,9.476e+3,
276.072942,,1.086e+3,
276.24678,,8.652e+2,
276.564081,,3.787e+3,
276.566307,,1.571e+4,
276.64557,,6.403e+3,
276.813521,,1.903e+3,
276.855495,,1.283e+4,
276.973093,,1.334e+3,
277.21856,,3.271e+2,
277.426909,,9.995e+3,
277.471165,,5.347e+3,
277.496766,,1.982e+3,
277.576033,,6.073e+3,
277.618326,,8.595e+2,
277.77492,,8.324e+3,
277.853905,,4.495e+3,
278.13995,,3.823e+3,
278.152351,,3.040e+2,
278.24654,,3.622e+2,
278.41856,,3.209e+3,
278.6621,,1.494e+2,
278.68875,,2.038e+2,
278.85877,,1.924e+2,
279.15574,,8.411e+2,
279.477163,,1.213e+3,
279.53438,,4.382e+2,
279.701204,,4.879e+3,
279.77888,,6.085e+3,
279.875345,,7.916e+3,
279.927847,,1.671e+3,
279.94456,,6.382e+3,
279.998324,,3.714e+2,
280.279196,,7.331e+3,
280.346168,,1.160e+4,
280.553486,,2.842e+3,
280.5932,,2.100e+2,
280.82281,,2.364e+3,
280.95115,,1.438e+3,
281.015091,,5.622e+3,
281.026374,,1.332e+4,
281.2161,,6.155e+2,
281.266089,,3.194e+2,
281.321667,,1.560e+2,
281.489536,,1.406e+3,
281.66872,,5.532e+1,
281.7495,,4.045e+3,
281.846206,,4.965e+2,
281.94305,,1.089e+3,
282.11177,,9.721e+2,
282.14343,,7.880e+1,
282.210359,,2.209e+3,
282.23407,,1.483e+3,
282.244636,,1.784e+3,
282.26973,,8.733e+1,
282.495865,,3.460e+2,
282.579462,,2.616e+3,
282.60424,,5.516e+1,
283.03973,,2.302e+3,
283.06579,,3.037e+2,
283.17479,,3.600e+2,
283.651546,,5.785e+3,
283.6896,,2.515e+1,
284.103437,,5.219e+3,
284.2236,,4.800e+2,
284.415704,,4.176e+2,
284.52448,,5.856e+3,
284.61161,,4.797e+1,
284.75717,,1.020e+4,
284.87731,7.455e+1,,
284.904975,,3.963e+3,
284.91718,8.495e+1,,
285.02029,,2.167e+2,
285.06836,,3.323e+3,
285.075934,,2.288e+3,
285.12526,,1.030e+3,
285.25292,,1.135e+3,
285.2858,,4.703e+1,
285.3478,,8.183e+1,
285.375474,,5.891e+2,
285.433522,,1.723e+4,
285.52221,1.864e+2,,
285.529228,,3.049e+3,
285.997,2.650e+2,,
286.230575,,8.930e+2,
286.2872,,2.167e+2,
286.37373,,1.792e+2,
286.43606,3.311e+2,,
286.45139,,4.278e+3,
286.65917,1.469e+3,,
286.80856,,2.543e+2,
286.81003,1.764e+3,,
286.91315,,1.584e+4,
287.05463,3.975e+2,,
287.692865,,1.068e+3,
287.768455,,8.319e+3,
287.80233,,2.300e+3,
287.915936,,3.749e+3,
288.002771,,1.779e+4,
288.249911,,2.224e+4,
288.40552,,1.770e+3,
288.475911,,8.446e+3,
288.478299,,1.803e+4,
288.6967,,1.553e+3,
288.71534,,8.628e+2,
288.824022,,1.302e+4,
288.961872,,2.170e+4,
289.05565,,1.322e+3,
289.163965,,4.568e+4,
289.167565,,3.139e+2,
289.244083,,3.574e+4,
289.25656,,6.556e+2,
289.265416,,7.264e+4,
289.32112,,7.497e+2,
289.331721,,8.351e+4,
289.4625,,3.623e+2,
289.5603,,5.958e+2,
289.620609,,1.546e+4,
289.78873,,2.635e+3,
289.91731,,9.515e+2,
289.91961,8.453e+1,,
289.95987,1.354e+2,,
290.25356,,7.106e+1,
290.307536,,1.621e+4,
290.412484,1.079e+2,,
290.53028,,1.506e+2,
290.562759,,1.312e+3,
290.61325,2.451e+2,,
290.645812,,5.719e+4,
290.747139,,2.767e+4,
290.843879,,4.084e+3,
290.881744,,1.543e+5,
291.001936,,4.889e+4,
291.038566,,3.683e+4,
291.106299,,3.583e+4,
291.16521,,1.749e+3,
291.244637,,1.817e+3,
291.30394,,2.771e+2,
291.428754,,3.742e+3,
291.48443,,4.018e+2,
291.4851,,1.466e+3,
291.49243,5.753e+2,,
291.53303,8.014e+1,,
291.53347,,2.648e+3,
291.58767,,3.923e+3,
291.723528,,1.044e+3,
291.736471,,5.712e+3,
291.96524,,2.165e+3,
291.99932,,9.673e+3,
292.038366,,2.429e+4,
292.24968,,2.996e+2,
292.33357,,4.450e+3,
292.34822,,7.591e+2,
292.361922,1.263e+3,,
292.401912,,2.048e+5,
292.464109,,1.206e+5,
292.528698,,3.044e+3,
292.62567,8.116e+1,,
292.64457,,3.819e+3,
293.012584,,2.585e+3,
293.080787,,4.462e+4,
293.16206,,4.727e+3,
293.23213,,8.916e+3,
293.383263,,1.544e+3,
293.440067,,9.265e+3,
293.58747,1.339e+2,,
293.63526,,3.432e+2,
293.824895,,1.585e+3,
294.138539,,3.857e+4,
294.14955,,1.578e+4,
294.23749,,1.563e+3,
294.238777,1.195e+2,,
294.318779,2.970e+2,,
294.44858,,1.172e+3,
294.457121,,5.998e+4,
294.50623,,1.920e+2,
294.55928,,2.718e+2,
294.56692,,2.070e+2,
294.652649,1.107e+2,,
294.80647,,5.680e+3,
294.877164,,1.081e+2,
294.917566,,4.178e+3,
294.96275,3.116e+2,,
295.034846,,1.223e+4,
295.04497,,7.876e+1,
295.11272,,4.581e+2,
295.15633,,9.793e+2,
295.17149,,1.112e+2,
295.207123,,3.825e+4,
295.36536,,8.960e+1,
295.433422,1.390e+2,,
295.5579,,5.961e+3,
295.5799,8.875e+1,,
295.66405,,2.223e+2,
295.75207,,1.521e+4,
295.85953,,4.476e+3,
296.20035,,2.807e+2,
296.277383,4.716e+2,,
296.380679,,2.544e+2,
296.67041,,8.487e+1,
296.706105,,3.759e+2,
296.837846,,5.449e+4,
296.98042,,9.827e+1,
297.04257,,3.199e+2,
297.09073,,8.960e+1,
297.39705,,3.462e+2,
297.52164,,6.995e+1,
297.565144,,8.155e+3,
297.619604,,1.434e+4,
297.632721,,2.799e+2,
297.65171,,3.136e+4,
297.75396,4.126e+2,,
297.78607,,8.339e+1,
297.94032,,2.509e+2,
298.12002,,5.613e+3,
298.27584,,2.984e+3,
298.35621,,7.984e+3,
298.51791,,5.155e+2,
298.8025,,8.331e+3,
298.93083,,1.749e+3,
298.9379,,2.316e+2,
298.95946,,9.633e+3,
299.29849,,5.390e+1,
299.40581,,6.444e+2,
299.45401,,5.311e+2,
299.512067,,3.620e+2,
299.599954,,7.295e+3,
300.120409,,4.644e+4,
300.17478,,4.706e+3,
300.2654,1.127e+2,,
300.34641,,1.033e+4,
300.58134,,3.330e+3,
300.64981,,1.917e+3,
300.72998,,1.463e+3,
300.85028,,1.517e+3,
300.861419,,4.283e+3,
301.201522,,2.499e+3,
301.29964,,3.847e+2,
301.310428,,8.308e+3,
301.48208,,2.195e+4,
301.57062,,2.560e+2,
301.599129,,3.049e+3,
301.61418,,3.108e+3,
301.678,,1.960e+4,
301.894562,,5.736e+2,
302.021145,,7.814e+2,
302.06544,,3.081e+3,
302.25804,,3.215e+3,
302.388387,,1.624e+3,
302.49831,,3.733e+3,
302.76061,,1.465e+3,
302.80538,,2.846e+2,
302.80548,,3.686e+3,
303.34473,,4.370e+4,
303.381445,,3.863e+4,
303.44421,,2.156e+2,
303.79637,,5.051e+1,
303.85198,,1.137e+3,
303.97617,,6.836e+2,
304.11983,,3.322e+2,
304.141572,,5.259e+3,
304.226054,,9.003e+3,
304.311916,3.851e+2,,
304.352439,,3.255e+3,
304.354906,3.232e+2,,
304.493249,3.003e+2,,
304.821163,,3.793e+4,
304.864665,,2.779e+3,
304.888713,,7.490e+3,
305.03912,2.137e+2,,
305.07337,,2.694e+3,
305.087877,2.186e+2,,
305.2326,,1.292e+2,
305.33822,,3.143e+4,
305.36542,1.354e+3,,
305.388709,,1.221e+4,
305.42313,,7.452e+2,
305.63328,1.945e+3,,
305.6629,,9.973e+1,
305.70643,,8.968e+2,
305.87462,,2.097e+2,
305.918478,,3.279e+2,
306.045225,2.798e+3,,
306.1014,,7.951e+1,
306.21666,,1.006e+3,
306.269377,,1.810e+3,
306.3244,,3.195e+4,
306.37568,,3.665e+2,
306.44603,,1.190e+2,
306.544,,2.670e+2,
306.56137,,4.210e+3,
306.63699,4.059e+3,,
306.652313,3.637e+2,,
306.666288,,4.461e+2,
306.710414,,2.623e+4,
306.907693,,2.756e+2,
306.964612,2.599e+2,,
307.00916,,1.064e+3,
307.381715,5.119e+2,,
307.46508,,1.525e+3,
307.50171,,2.432e+2,
307.52654,3.830e+2,,
307.54585,,1.144e+3,
307.55647,,5.434e+2,
307.593262,8.597e+1,,
307.600558,,1.713e+3,
308.008063,,1.752e+2,
308.033014,6.897e+1,,
308.10017,,1.345e+3,
308.12451,,1.865e+3,
308.20064,3.756e+2,,
308.21095,3.928e+2,,
308.235894,,3.673e+2,
308.244948,,2.803e+2,
308.252025,,3.141e+3,
308.320869,,3.794e+3,
308.353811,1.216e+2,,
308.6205,,1.407e+3,
308.649885,,2.609e+3,
308.70637,1.075e+2,,
308.810937,2.301e+2,,
308.821449,,1.378e+3,
308.858272,,8.261e+2,
308.912576,1.348e+2,,
308.96225,,9.601e+2,
309.310037,,3.246e+5,
309.378983,1.664e+2,,
309.419367,,3.131e+4,
309.468657,1.118e+2,,
309.488081,,2.803e+2,
310.093226,,2.430e+4,
310.23004,,2.534e+5,
310.32762,,2.107e+2,
310.450453,,2.492e+2,
310.490486,,3.479e+3,
310.535445,,1.181e+3,
310.593,,3.425e+2,
310.86993,,3.791e+3,
310.9363,,4.153e+3,
310.975885,,3.935e+2,
311.071018,,1.898e+5,
311.12435,,1.449e+2,
311.29173,5.334e+1,,
311.356443,,1.263e+4,
311.67811,,2.488e+3,
311.80617,,1.408e+2,
311.838168,,1.408e+5,
312.072924,,1.858e+4,
312.114717,,3.104e+4,
312.28971,,2.637e+4,
312.37687,,5.636e+2,
312.430303,,5.617e+2,
312.50214,,5.837e+3,
312.528548,,1.046e+5,
312.571819,,5.116e+2,
312.62194,,4.468e+4,
312.71445,,3.425e+2,
312.82997,,1.527e+3,
312.86915,,5.684e+3,
313.027006,,4.454e+4,
313.333457,,3.019e+4,
313.49386,,2.963e+4,
313.651745,,2.434e+4,
313.80493,,4.147e+3,
313.97445,,2.009e+4,
314.10798,,2.536e+3,
314.14841,,5.512e+3,
314.20091,,1.361e+3,
314.219104,,4.525e+3,
314.248226,,3.345e+4,
314.34828,,1.263e+3,
314.47154,,1.321e+3,
314.622794,,7.842e+3,
314.87442,,7.152e+2,
315.13163,,7.657e+3,
315.54035,,3.941e+3,
315.788967,,2.287e+3,
315.93663,,1.406e+3,
316.07745,,1.406e+3,
316.13106,,7.623e+2,
316.23535,,2.700e+2,
316.27171,,4.875e+3,
316.37706,,3.599e+2,
316.483946,,2.684e+3,
316.59017,,4.125e+3,
316.74181,,2.012e+3,
316.75056,,3.751e+3,
316.79949,,9.960e+1,
316.813265,,3.509e+3,
317.1493,,3.943e+1,
317.2239,,2.426e+2,
317.40832,,1.236e+3,
317.45329,,1.477e+3,
318.25789,,9.920e+2,
318.340898,5.778e+3,,
318.396014,7.847e+3,,
318.40135,4.411e+3,,
318.5398,9.594e+3,,
318.68531,,1.173e+3,
318.75017,,2.379e+2,
318.771228,,4.100e+4,
318.808729,,6.510e+3,
318.851293,,5.263e+4,
318.9778,,1.402e+3,
319.068244,,7.607e+4,
319.31937,,2.978e+3,
319.543475,,1.392e+3,
319.655947,,1.403e+3,
319.72835,,1.428e+2,
319.80071,6.459e+2,,
320.152964,,1.120e+3,
320.23819,9.263e+2,,
320.55745,1.451e+3,,
320.610816,,9.034e+2,
320.740725,6.110e+2,,
320.834605,,6.667e+3,
321.05042,7.431e+2,,
321.243,1.702e+3,,
321.474555,,6.969e+3,
321.710858,,2.498e+4,
321.88659,1.372e+2,,
321.9646,,4.677e+1,
322.64482,,1.510e+2,
322.6908,,1.700e+3,
323.19439,,3.761e+3,
323.31873,1.776e+2,,
323.353605,,3.347e+3,
323.376457,,5.493e+3,
323.787051,,1.927e+4,
324.28102,,6.316e+1,
324.71512,,1.552e+2,
324.96014,,2.540e+3,
325.077335,,1.356e+4,
325.186398,,1.023e+4,
325.47638,,1.633e+4,
325.56477,9.838e+1,,
325.71982,,5.133e+1,
325.78863,,3.938e+3,
326.17862,,1.187e+3,
326.32376,1.655e+2,,
326.33215,,2.061e+3,
326.5885,,5.960e+3,
326.770229,,8.839e+4,
326.89346,,7.911e+2,
327.11225,,1.106e+5,
327.163375,1.630e+2,,
327.30124,1.613e+2,,
327.45059,,1.137e+3,
327.612463,,1.399e+5,
327.74336,,3.240e+3,
327.77102,,3.053e+3,
327.984316,,2.818e+4,
328.111122,,9.978e+2,
328.113505,,1.114e+3,
328.1748,,1.111e+3,
328.252936,,1.326e+4,
328.33096,1.419e+2,,
328.43572,1.908e+2,,
328.482384,,7.837e+2,
328.501422,,2.531e+3,
328.703571,,5.749e+2,
328.830118,,1.170e+3,
328.938805,,5.929e+3,
329.02339,,8.176e+2,
329.31454,,1.438e+3,
329.75076,,8.760e+2,
329.81473,1.070e+2,,
329.873783,,5.115e+3,
330.16568,,3.436e+2,
330.917623,1.036e+2,,
331.48419,,1.340e+3,
331.516995,,1.322e+3,
332.153362,,3.633e+3,
332.985321,3.152e+2,,
333.78225,,5.118e+3,
334.58636,,9.188e+2,
335.635052,1.566e+2,,
336.148997,,1.021e+3,
336.554984,1.755e+2,,
337.605238,9.523e+1,,
337.738984,1.457e+2,,
337.762308,4.013e+2,,
338.62901,,8.093e+1,
338.87076,,2.955e+1,
339.264548,,1.103e+3,
339.757621,5.555e+1,,
340.0392,1.938e+2,,
340.06701,,4.500e+1,
340.2566,1.156e+2,,
340.43881,,1.128e+3,
342.0088,,6.413e+1,
342.49068,,4.958e+1,
344.30049,,6.780e+1,
345.71429,,2.822e+3,
348.592123,,2.716e+3,
349.69306,9.770e+1,,
349.70267,,4.269e+3,
350.08087,1.067e+2,,
350.443577,,9.191e+3,
351.729954,,2.987e+4,
352.001914,,4.169e+3,
352.18341,,1.917e+3,
352.31113,,5.712e+1,
352.471608,,5.648e+3,
352.97333,3.802e+2,,
353.077216,,1.654e+4,
353.22689,,6.111e+2,
353.36758,6.393e+2,,
353.37542,1.471e+2,,
354.34937,1.565e+2,,
354.519584,,2.625e+4,
354.53345,1.629e+2,,
355.3268,1.428e+2,,
355.679988,,4.519e+4,
356.617802,,4.686e+3,
357.43487,,1.818e+3,
358.97592,,2.315e+4,
359.202173,,2.747e+4,
359.333321,,1.536e+4,
361.892664,,4.913e+3,
362.04817,,7.437e+2,
362.12085,,3.479e+3,
363.90212,1.595e+2,,
364.47066,9.399e+2,,
366.13648,,3.445e+3,
366.35915,5.787e+2,,
366.77379,7.407e+2,,
366.94227,,6.859e+3,
367.12027,2.294e+2,,
367.24022,5.410e+2,,
367.34028,9.481e+2,,
367.54969,6.975e+1,,
367.56993,1.641e+2,,
367.66844,9.044e+2,,
368.01128,1.145e+3,,
368.31142,3.998e+2,,
368.43322,8.473e+1,,
368.62571,2.780e+2,,
368.74827,1.365e+3,,
368.80682,9.547e+2,,
369.02794,6.741e+2,,
369.22194,1.249e+3,,
369.53391,1.673e+3,,
369.58647,9.499e+2,,
370.01244,,1.108e+3,
370.03386,,5.270e+3,
370.35678,3.341e+3,,
370.46999,1.749e+3,,
370.50332,6.404e+2,,
370.58153,5.354e+1,,
370.60294,1.699e+2,,
370.87137,2.288e+2,,
371.11193,,1.253e+3,
371.35332,1.567e+2,,
371.546402,,2.157e+4,
372.198976,1.427e+2,,
372.33239,3.858e+1,,
372.73411,,1.923e+4,
372.83437,,4.148e+3,
372.903047,1.298e+2,,
373.274763,,1.783e+4,
373.51562,,1.126e+3,
373.601432,,1.360e+3,
373.874652,2.113e+2,,
374.579927,,1.499e+4,
374.79804,1.885e+2,,
375.086781,,1.311e+4,
375.12283,,2.165e+3,
376.022075,,2.339e+3,
376.31368,1.548e+2,,
376.87652,,5.957e+1,
377.096615,,1.141e+4,
377.29643,,1.198e+3,
377.51702,9.536e+1,,
377.834345,,2.318e+3,
377.86771,1.884e+2,,
377.96398,7.539e+1,,
378.13779,1.033e+2,,
378.71383,7.669e+1,,
378.723914,,3.247e+3,
379.03237,2.841e+2,,
379.04638,2.087e+2,,
379.49493,8.205e+2,,
379.64636,5.916e+1,,
379.99082,2.771e+2,,
380.34774,3.997e+2,,
380.37809,1.254e+2,,
380.6796,2.549e+2,,
380.75041,1.886e+2,,
380.83058,,3.750e+1,
380.85188,3.160e+2,,
380.96008,1.260e+2,,
381.349106,4.319e+2,,
381.538207,,6.209e+3,
381.79754,1.125e+2,,
381.82414,7.463e+2,,
381.99643,1.949e+2,,
382.029161,8.629e+1,,
382.14863,1.873e+2,,
382.200515,3.392e+2,,
382.28888,2.771e+2,,
382.32121,2.786e+2,,
382.855694,1.149e+3,,
383.9001,2.113e+2,,
384.0134,1.470e+2,,
384.04279,6.163e+2,,
384.074941,1.701e+3,,
384.44372,2.050e+2,,
384.73257,2.020e+2,,
384.7333,,2.485e+3,
385.53627,7.792e+2,,
385.58404,2.448e+3,,
386.38597,2.168e+2,,
386.48561,9.225e+2,,
386.760209,1.344e+2,,
387.1075,2.740e+2,,
387.507162,1.019e+3,,
387.58981,2.000e+2,,
387.60805,4.640e+2,,
387.87074,,8.155e+3,
388.65786,1.549e+2,,
389.01792,2.909e+2,,
389.28564,2.733e+2,,
389.79653,7.399e+2,,
389.80508,6.766e+2,,
389.82603,2.760e+2,,
389.912762,,5.166e+3,
390.11529,5.698e+2,,
390.22531,1.456e+3,,
390.32524,,5.296e+3,
390.44632,5.818e+1,,
390.67466,9.431e+1,,
390.96641,8.490e+1,,
390.98572,1.796e+2,,
391.43172,,3.280e+3,
391.640442,,3.757e+3,
392.17348,5.501e+2,,
392.19042,9.335e+1,,
392.24291,2.490e+2,,
392.46494,4.460e+2,,
392.79249,3.760e+2,,
392.84667,3.247e+1,,
393.00181,4.751e+2,,
393.13349,2.970e+2,,
393.35486,5.274e+1,,
393.40065,3.011e+2,,
393.51308,2.465e+2,,
393.88795,6.097e+1,,
393.93251,1.054e+2,,
394.12435,6.181e+1,,
394.19952,1.022e+2,,
394.39379,4.437e+1,,
395.195667,,8.049e+3,
396.36077,2.133e+2,,
397.36284,,3.932e+3,
398.05089,1.759e+2,,
398.45865,1.349e+2,,
398.88273,1.184e+2,,
399.05382,5.569e+2,,
399.05957,6.988e+2,,
399.27949,8.595e+2,,
399.8723,1.172e+3,,
400.57022,,1.111e+4,
401.72754,,6.201e+2,
402.33773,,7.672e+3,
403.12167,4.914e+1,,
403.56204,,6.204e+3,
404.26303,1.175e+2,,
405.09537,5.581e+2,,
405.13459,1.045e+3,,
405.32498,4.940e+1,,
405.35744,,1.848e+3,
405.706344,4.845e+2,,
406.39257,4.711e+2,,
406.50577,,1.798e+3,
406.77356,4.871e+1,,
409.0568,1.267e+3,,
409.23919,1.358e+2,,
409.25194,8.496e+1,,
409.26831,1.165e+3,,
409.54749,8.048e+2,,
409.97833,1.653e+3,,
410.21491,5.119e+2,,
410.47595,1.345e+3,,
410.5157,1.544e+3,,
410.81956,2.603e+2,,
410.97575,1.002e+3,,
410.98168,2.876e+2,,
411.15713,7.895e+1,,
411.17788,5.199e+3,,
411.21864,7.471e+1,,
411.3506,2.146e+2,,
411.51768,2.368e+3,,
411.64716,6.903e+2,,
411.65472,2.994e+2,,
411.81775,3.796e+2,,
411.82501,1.228e+2,,
411.86253,1.820e+2,,
411.9443,1.931e+2,,
412.05269,1.196e+2,,
412.09544,4.585e+1,,
412.3175,2.268e+2,,
412.34985,1.020e+3,,
412.80642,1.554e+3,,
412.88507,1.794e+2,,
413.19909,1.669e+3,,
413.44835,1.209e+3,,
413.61012,8.465e+1,,
413.92485,1.029e+2,,
417.12941,6.844e+1,,
418.34285,,2.252e+3,
419.15662,1.333e+2,,
422.41297,1.148e+2,,
422.66171,1.430e+2,,
423.20167,,7.396e+2,
423.24564,7.472e+2,,
423.29466,4.620e+2,,
423.40007,3.220e+2,,
423.57581,2.376e+2,,
423.96037,1.566e+2,,
424.00807,7.039e+1,,
424.13081,6.450e+1,,
425.7363,1.137e+2,,
426.21549,1.424e+2,,
426.86378,1.595e+3,,
426.97535,1.001e+2,,
427.03076,4.726e+2,,
427.03166,1.474e+2,,
427.1548,1.190e+3,,
427.69509,9.271e+2,,
427.88632,,6.137e+2,
428.28981,8.517e+1,,
428.40428,8.587e+2,,
428.64094,1.038e+2,,
429.12885,7.289e+1,,
429.18064,8.683e+2,,
429.60974,7.178e+2,,
429.76724,6.036e+2,,
429.80248,4.481e+2,,
430.6209,6.961e+1,,
430.71723,5.459e+1,,
430.95164,5.795e+1,,
430.97942,5.889e+1,,
433.00229,1.733e+2,,
433.23747,5.490e+1,,
433.28186,2.241e+2,,
433.61155,4.734e+1,,
434.0998,2.848e+2,,
434.28257,1.001e+2,,
435.28654,4.726e+2,,
435.49676,1.292e+2,,
436.42082,1.053e+2,,
437.32232,4.677e+2,,
437.3818,1.459e+2,,
437.53035,3.543e+2,,
437.92304,8.625e+3,,
438.05437,2.200e+2,,
438.4713,5.852e+3,,
438.99793,3.615e+3,,
439.30804,5.779e+1,,
439.52233,2.038e+3,,
440.05717,9.142e+2,,
440.36683,9.698e+1,,
440.66382,1.234e+3,,
440.76338,1.942e+3,,
440.81958,1.998e+3,,
440.84931,1.059e+3,,
440.85162,1.581e+3,,
441.50287,6.993e+1,,
441.64662,3.363e+2,,
442.15674,3.504e+2,,
442.59974,2.586e+2,,
442.72877,5.738e+2,,
442.851,1.653e+2,,
442.97894,1.141e+2,,
443.04995,5.989e+1,,
443.45941,1.969e+2,,
443.61323,2.695e+2,,
443.78304,4.369e+2,,
444.168,5.403e+2,,
444.33357,4.865e+2,,
444.42059,3.988e+2,,
445.20051,1.770e+3,,
445.74696,2.587e+2,,
445.77534,2.406e+2,,
445.83882,4.835e+1,,
445.97536,7.044e+2,,
446.02914,1.374e+3,,
446.04287,7.799e+1,,
446.0985,1.956e+2,,
446.23574,1.532e+3,,
446.80001,2.447e+2,,
446.87553,9.888e+1,,
446.97033,1.042e+3,,
447.40397,3.044e+2,,
448.00346,1.261e+2,,
448.88872,7.122e+2,,
449.08087,1.533e+2,,
449.60585,2.017e+2,,
450.19542,1.036e+2,,
451.41807,1.103e+2,,
452.42081,3.022e+2,,
452.51524,7.347e+1,,
453.21702,,7.976e+2,
454.00068,6.468e+1,,
454.53926,1.017e+3,,
454.96423,7.528e+2,,
455.30509,3.122e+2,,
456.07118,7.800e+2,,
457.04198,1.103e+2,,
457.17838,5.438e+2,,
457.7174,2.542e+2,,
457.87282,4.601e+2,,
457.91901,1.153e+2,,
458.03967,3.533e+2,,
458.6366,4.792e+2,,
459.41158,6.155e+2,,
460.96459,3.300e+2,,
461.97771,4.812e+1,,
464.63937,1.029e+2,,
467.04817,1.559e+2,,
470.61623,1.192e+2,,
470.65649,2.647e+2,,
471.05525,2.379e+2,,
471.41103,2.003e+2,,
471.76858,1.638e+2,,
474.66221,8.846e+1,,
474.85065,1.158e+2,,
475.09766,1.123e+2,,
475.15658,8.254e+1,,
475.39308,1.233e+2,,
475.73453,7.942e+1,,
475.74736,1.724e+2,,
476.66256,2.543e+2,,
477.6358,3.178e+2,,
477.65102,1.757e+2,,
478.64999,3.671e+2,,
479.50978,7.570e+1,,
479.69081,5.914e+2,,
480.75226,7.631e+2,,
481.90336,4.565e+1,,
482.74529,1.029e+2,,
483.16462,1.272e+2,,
483.24237,9.995e+1,,
484.29972,1.710e+2,,
485.14901,2.224e+2,,
486.47298,3.346e+2,,
487.12563,7.949e+1,,
487.54859,4.803e+2,,
488.15569,6.581e+2,,
488.33893,,7.831e+2,
490.0626,3.685e+2,,
490.44343,1.079e+2,,
491.62521,5.849e+1,,
492.56564,1.087e+2,,
494.28014,4.502e+1,,
501.4622,4.727e+2,,
505.16001,7.194e+1,,
506.41143,1.647e+2,,
510.51465,1.242e+2,,
512.85082,3.769e+2,,
513.84064,2.957e+2,,
514.87009,1.728e+2,,
515.93231,1.289e+2,,
519.2984,4.329e+2,,
519.47776,3.156e+2,,
519.48743,1.380e+2,,
519.53575,1.728e+2,,
522.57241,1.026e+2,,
523.36918,7.882e+1,,
523.40727,3.941e+2,,
524.016,5.834e+1,,
524.08635,4.507e+2,,
540.19224,2.455e+2,,
541.52556,4.729e+2,,
548.79126,2.730e+2,,
558.5181,,3.680e+1,
560.846,,5.087e+1,
560.8684,,4.867e+1,
562.46051,2.094e+2,,
562.48741,1.005e+2,,
562.4911,,2.444e+1,
562.76298,5.024e+2,,
563.2678,,2.871e+1,
563.7345,,1.657e+2,
564.0191,,3.143e+2,
564.14318,1.747e+2,,
565.0637,,2.544e+2,
565.5533,,1.534e+2,
565.6248,,2.000e+2,
565.74404,1.105e+2,,
566.83618,1.001e+2,,
567.0848,4.203e+2,,
568.3752,,2.928e+1,
569.85189,8.754e+2,,
570.3575,7.209e+2,,
570.69824,4.459e+2,,
572.56386,2.129e+2,,
572.70445,1.082e+3,,
572.76551,1.678e+2,,
573.1249,2.091e+2,,
573.70616,2.084e+2,,
574.1474,,2.668e+1,
574.34377,1.167e+2,,
574.4758,,2.448e+1,
574.87257,6.378e+1,,
575.8326,,8.801e+1,
576.1745,,2.571e+1,
576.3211,,1.467e+2,
577.05267,2.013e+2,,
577.24119,1.571e+2,,
577.6452,4.542e+1,,
578.43762,2.850e+2,,
579.0347,,1.837e+1,
579.9844,2.658e+2,,
580.7099,3.832e+2,,
581.6463,,1.204e+1,
581.74912,5.289e+2,,
583.06745,6.831e+2,,
583.7187,,2.884e+1,
584.62519,8.610e+2,,
601.6121,6.160e+1,,
603.97256,2.513e+2,,
608.14422,2.868e+2,,
609.02084,9.784e+2,,
611.16506,2.203e+2,,
611.95275,5.136e+2,,
613.5365,2.030e+2,,
619.9191,8.730e+1,,
621.63643,1.172e+2,,
623.0798,1.097e+2,,
624.28216,6.835e+1,,
624.31073,2.823e+2,,
625.18231,1.065e+2,,
625.69003,2.455e+1,,
625.8571,2.219e+1,,
627.46524,5.198e+1,,
628.51603,7.743e+1,,
628.68986,2.061e+2,,
629.28244,8.633e+1,,
629.64909,6.392e+1,,
630.42868,1.498e+2,,
631.14776,2.451e+2,,
632.11875,2.122e+2,,
652.3569,,3.530e+1,
652.486,,1.847e+1,
652.559,,2.641e+1,
653.14207,1.519e+2,,
654.9381,,6.809e+1,
655.3874,,1.506e+2,
655.3882,,4.109e+1,
656.1933,,1.110e+2,
656.2407,,8.587e+1,
658.1224,,1.222e+1,
661.5298,,1.044e+1,
662.6151,,3.563e+1,
663.0062,,4.826e+1,
663.6925,,1.210e+2,
664.2261,,9.977e+1,
664.6171,,2.764e+1,
664.7324,,7.879e+1,
666.0737,,2.523e+1,
669.2799,,1.424e+1,
670.2525,,1.753e+1,
671.5182,,1.631e+1,
674.1261,,1.470e+1,
674.8474,,1.058e+1,
675.4907,,2.161e+1,
675.5622,,1.141e+1,
675.9542,,6.388e+1,
678.2987,,3.857e+1,
679.0808,,1.518e+1,
680.4833,,3.124e+1,
703.94,,3.145e+1,
704.5917,,2.043e+1,
705.0084,,3.988e+1,
716.2793,,1.916e+1,
717.0183,,1.450e+1,
718.6094,,2.348e+1,
722.5915,,1.378e+1,
795.81982,5.748e+1,,
800.2018,6.447e+1,,
800.59068,6.094e+1,,
801.59826,6.735e+1,,
802.6424,1.060e+2,,
811.67891,1.029e+2,,
816.10622,5.452e+1,,
818.729,1.792e+2,,
820.29943,2.620e+2,,
828.23041,1.598e+2,,
834.1964,9.906e+1,,
853.43665,4.502e+1,,
862.47291,7.359e+1,,
864.41288,6.280e+1,,
864.70619,4.418e+1,,
864.81488,4.243e+1,,
875.9039,,1.054e+1,
913.488,,2.109e+1,
921.3972,,1.356e+1,
934.10885,9.379e+1,,
943.5579,8.514e+1,,